  Measurement Number     Measurement type
                   8                DC IV

      Measurement ID             SeriesID
       739696.799352                    0

         MeasureMode                Bias1                Bias2
                   2                    2                   -1

                Step  Positive compliance  Negative compliance
                0.05                1e-06                1e-06

  RealMeasuredPoints
                 124

        Bias        Current     Resistance
0.0000e+00   -1.2400e-12   -0.0000e+00
5.0000e-02   -3.1700e-12   -1.5773e+10
1.0000e-01   8.3000e-13   1.2048e+11
1.5000e-01   1.4000e-12   1.0714e+11
2.0000e-01   4.0300e-12   4.9628e+10
2.5000e-01   2.6400e-12   9.4697e+10
3.0000e-01   3.8100e-12   7.8740e+10
3.5000e-01   1.6000e-13   2.1875e+12
4.0000e-01   3.1000e-12   1.2903e+11
4.5000e-01   4.1300e-12   1.0896e+11
5.0000e-01   1.3000e-13   3.8462e+12
5.5000e-01   -2.1000e-13   -2.6190e+12
6.0000e-01   7.1400e-12   8.4034e+10
6.5000e-01   1.4600e-11   4.4521e+10
7.0000e-01   9.5500e-12   7.3298e+10
7.5000e-01   7.0200e-12   1.0684e+11
8.0000e-01   1.1710e-11   6.8318e+10
8.5000e-01   1.7160e-11   4.9534e+10
9.0000e-01   1.4670e-11   6.1350e+10
9.5000e-01   1.7540e-11   5.4162e+10
1.0000e+00   2.4550e-11   4.0733e+10
1.0500e+00   3.9060e-11   2.6882e+10
1.1000e+00   6.0700e-11   1.8122e+10
1.1500e+00   4.5140e-11   2.5476e+10
1.2000e+00   8.1020e-11   1.4811e+10
1.2500e+00   8.1360e-11   1.5364e+10
1.3000e+00   9.4250e-11   1.3793e+10
1.3500e+00   1.0180e-10   1.3261e+10
1.4000e+00   1.1670e-10   1.1997e+10
1.4500e+00   1.3355e-10   1.0857e+10
1.5000e+00   1.6089e-10   9.3231e+09
1.5500e+00   2.6306e-10   5.8922e+09
1.6000e+00   2.3643e-10   6.7673e+09
1.6500e+00   2.5221e-10   6.5422e+09
1.7000e+00   2.9503e-10   5.7621e+09
1.7500e+00   3.7637e-10   4.6497e+09
1.8000e+00   4.6682e-10   3.8559e+09
1.8500e+00   4.4365e-10   4.1700e+09
1.9000e+00   5.5851e-10   3.4019e+09
1.9500e+00   6.3971e-10   3.0483e+09
2.0000e+00   7.6260e-10   2.6226e+09
2.0000e+00   7.0461e-10   2.8384e+09
1.9500e+00   8.7580e-10   2.2265e+09
1.9000e+00   1.0101e-09   1.8810e+09
1.8500e+00   6.4341e-10   2.8753e+09
1.8000e+00   5.0604e-10   3.5570e+09
1.7500e+00   5.2916e-10   3.3071e+09
1.7000e+00   8.5985e-10   1.9771e+09
1.6500e+00   7.9891e-10   2.0653e+09
1.6000e+00   1.7499e-09   9.1434e+08
1.5500e+00   1.1846e-09   1.3085e+09
1.5000e+00   7.3293e-10   2.0466e+09
1.4500e+00   6.0165e-10   2.4100e+09
1.4000e+00   4.7163e-10   2.9684e+09
1.3500e+00   9.8100e-11   1.3761e+10
1.3000e+00   1.6766e-10   7.7538e+09
1.2500e+00   2.3500e-10   5.3191e+09
1.2000e+00   3.7039e-10   3.2398e+09
1.1500e+00   7.8760e-11   1.4601e+10
1.1000e+00   7.3110e-11   1.5046e+10
1.0500e+00   5.1640e-11   2.0333e+10
1.0000e+00   6.4070e-11   1.5608e+10
9.5000e-01   5.8000e-11   1.6379e+10
9.0000e-01   5.1280e-11   1.7551e+10
8.5000e-01   4.2010e-11   2.0233e+10
8.0000e-01   2.6880e-11   2.9762e+10
7.5000e-01   2.4690e-11   3.0377e+10
7.0000e-01   1.4730e-11   4.7522e+10
6.5000e-01   8.4800e-12   7.6651e+10
6.0000e-01   8.7700e-12   6.8415e+10
5.5000e-01   1.6900e-12   3.2544e+11
5.0000e-01   -7.8000e-13   -6.4103e+11
4.5000e-01   -2.6500e-12   -1.6981e+11
4.0000e-01   8.0000e-13   5.0000e+11
3.5000e-01   6.8000e-13   5.1471e+11
3.0000e-01   -4.2600e-12   -7.0423e+10
2.5000e-01   -8.5500e-12   -2.9240e+10
2.0000e-01   -6.5500e-12   -3.0534e+10
1.5000e-01   -3.4500e-12   -4.3478e+10
1.0000e-01   -5.4000e-12   -1.8519e+10
5.0000e-02   -9.3500e-12   -5.3476e+09
0.0000e+00   -2.7600e-12   -0.0000e+00
0.0000e+00   -3.6700e-12   -0.0000e+00
-5.0000e-02   -9.0800e-12   5.5066e+09
-1.0000e-01   -5.1800e-12   1.9305e+10
-1.5000e-01   -1.9900e-12   7.5377e+10
-2.0000e-01   -2.1700e-12   9.2166e+10
-2.5000e-01   -4.6200e-12   5.4113e+10
-3.0000e-01   -4.3200e-12   6.9444e+10
-3.5000e-01   -4.6200e-12   7.5758e+10
-4.0000e-01   -6.4700e-12   6.1824e+10
-4.5000e-01   -8.8100e-12   5.1078e+10
-5.0000e-01   -8.9500e-12   5.5866e+10
-5.5000e-01   -6.0900e-12   9.0312e+10
-6.0000e-01   -3.1300e-12   1.9169e+11
-6.5000e-01   -7.1700e-12   9.0656e+10
-7.0000e-01   -9.8800e-12   7.0850e+10
-7.5000e-01   -1.2070e-11   6.2138e+10
-8.0000e-01   -1.1640e-11   6.8729e+10
-8.5000e-01   -1.0190e-11   8.3415e+10
-9.0000e-01   -1.4060e-11   6.4011e+10
-9.5000e-01   -2.1540e-11   4.4104e+10
-1.0000e+00   -1.9090e-11   5.2383e+10
-1.0000e+00   -2.2600e-11   4.4248e+10
-9.5000e-01   -1.8940e-11   5.0158e+10
-9.0000e-01   -1.1540e-11   7.7990e+10
-8.5000e-01   -1.0470e-11   8.1184e+10
-8.0000e-01   -2.1520e-11   3.7175e+10
-7.5000e-01   -1.7900e-11   4.1899e+10
-7.0000e-01   -8.1900e-12   8.5470e+10
-6.5000e-01   -1.3990e-11   4.6462e+10
-6.0000e-01   -1.0500e-11   5.7143e+10
-5.5000e-01   -1.0040e-11   5.4781e+10
-5.0000e-01   -9.7700e-12   5.1177e+10
-4.5000e-01   -1.5100e-12   2.9801e+11
-4.0000e-01   1.4700e-12   -2.7211e+11
-3.5000e-01   8.3000e-13   -4.2169e+11
-3.0000e-01   3.6000e-13   -8.3333e+11
-2.5000e-01   -1.4700e-12   1.7007e+11
-2.0000e-01   4.9500e-12   -4.0404e+10
-1.5000e-01   1.1750e-11   -1.2766e+10
-1.0000e-01   5.3200e-12   -1.8797e+10
-5.0000e-02   1.6800e-12   -2.9762e+10
0.0000e+00   4.9300e-12   0.0000e+00
