  Measurement Number     Measurement type
                   8                DC IV

      Measurement ID             SeriesID
       739912.741537                    0

         MeasureMode                Bias1                Bias2
                   2                    2                   -1

                Step  Positive compliance  Negative compliance
                0.05                1e-05                1e-06

  RealMeasuredPoints
                 124

        Bias        Current     Resistance
0.0000e+00   -3.1900e-12   -0.0000e+00
5.0000e-02   -9.9200e-12   -5.0403e+09
1.0000e-01   7.2100e-12   1.3870e+10
1.5000e-01   3.9500e-12   3.7975e+10
2.0000e-01   -3.4900e-12   -5.7307e+10
2.5000e-01   1.6250e-11   1.5385e+10
3.0000e-01   4.0900e-12   7.3350e+10
3.5000e-01   3.6400e-12   9.6154e+10
4.0000e-01   6.6600e-12   6.0060e+10
4.5000e-01   -8.2300e-12   -5.4678e+10
5.0000e-01   2.7800e-12   1.7986e+11
5.5000e-01   6.6000e-12   8.3333e+10
6.0000e-01   -2.6400e-12   -2.2727e+11
6.5000e-01   1.4700e-11   4.4218e+10
7.0000e-01   1.4500e-11   4.8276e+10
7.5000e-01   1.7710e-11   4.2349e+10
8.0000e-01   1.2830e-11   6.2354e+10
8.5000e-01   -4.0000e-14   -2.1250e+13
9.0000e-01   1.0190e-11   8.8322e+10
9.5000e-01   2.1270e-11   4.4664e+10
1.0000e+00   7.4500e-12   1.3423e+11
1.0500e+00   4.3320e-11   2.4238e+10
1.1000e+00   6.4530e-11   1.7046e+10
1.1500e+00   7.3120e-11   1.5728e+10
1.2000e+00   7.8760e-11   1.5236e+10
1.2500e+00   1.0664e-10   1.1722e+10
1.3000e+00   1.0341e-10   1.2571e+10
1.3500e+00   5.1237e-10   2.6348e+09
1.4000e+00   9.8680e-10   1.4187e+09
1.4500e+00   1.5399e-09   9.4162e+08
1.5000e+00   1.8308e-09   8.1931e+08
1.5500e+00   3.6844e-09   4.2069e+08
1.6000e+00   5.4006e-09   2.9626e+08
1.6500e+00   6.6230e-09   2.4913e+08
1.7000e+00   1.5839e-08   1.0733e+08
1.7500e+00   1.6335e-08   1.0713e+08
1.8000e+00   1.8891e-08   9.5284e+07
1.8500e+00   2.2882e-08   8.0851e+07
1.9000e+00   2.1952e-08   8.6554e+07
1.9500e+00   2.5412e-08   7.6735e+07
2.0000e+00   2.8146e-08   7.1058e+07
2.0000e+00   2.8088e-08   7.1205e+07
1.9500e+00   2.7814e-08   7.0108e+07
1.9000e+00   2.1303e-08   8.9188e+07
1.8500e+00   2.1314e-08   8.6799e+07
1.8000e+00   2.3093e-08   7.7945e+07
1.7500e+00   2.1550e-08   8.1206e+07
1.7000e+00   2.2223e-08   7.6498e+07
1.6500e+00   2.1171e-08   7.7937e+07
1.6000e+00   2.4148e-08   6.6257e+07
1.5500e+00   1.7008e-08   9.1133e+07
1.5000e+00   1.5318e-08   9.7923e+07
1.4500e+00   1.4669e-08   9.8851e+07
1.4000e+00   1.4833e-08   9.4384e+07
1.3500e+00   1.3086e-08   1.0316e+08
1.3000e+00   1.1936e-08   1.0891e+08
1.2500e+00   1.1578e-08   1.0797e+08
1.2000e+00   1.0961e-08   1.0948e+08
1.1500e+00   1.0080e-08   1.1408e+08
1.1000e+00   9.0744e-09   1.2122e+08
1.0500e+00   8.3993e-09   1.2501e+08
1.0000e+00   8.0645e-09   1.2400e+08
9.5000e-01   6.4943e-09   1.4628e+08
9.0000e-01   3.3055e-09   2.7227e+08
8.5000e-01   3.2428e-09   2.6212e+08
8.0000e-01   3.4193e-09   2.3397e+08
7.5000e-01   2.9250e-09   2.5641e+08
7.0000e-01   2.6429e-09   2.6486e+08
6.5000e-01   2.2320e-09   2.9122e+08
6.0000e-01   2.3737e-09   2.5277e+08
5.5000e-01   1.7065e-09   3.2230e+08
5.0000e-01   8.6270e-10   5.7958e+08
4.5000e-01   7.5632e-10   5.9499e+08
4.0000e-01   5.7544e-10   6.9512e+08
3.5000e-01   4.7123e-10   7.4274e+08
3.0000e-01   3.5100e-10   8.5470e+08
2.5000e-01   1.3574e-10   1.8418e+09
2.0000e-01   1.3623e-10   1.4681e+09
1.5000e-01   8.9510e-11   1.6758e+09
1.0000e-01   2.6890e-11   3.7189e+09
5.0000e-02   3.0860e-11   1.6202e+09
0.0000e+00   5.2600e-12   0.0000e+00
0.0000e+00   -5.5000e-13   -0.0000e+00
-5.0000e-02   -2.1600e-11   2.3148e+09
-1.0000e-01   -3.4060e-11   2.9360e+09
-1.5000e-01   -3.7230e-11   4.0290e+09
-2.0000e-01   -5.3540e-11   3.7355e+09
-2.5000e-01   -4.4890e-11   5.5692e+09
-3.0000e-01   -2.7590e-11   1.0874e+10
-3.5000e-01   -1.7210e-11   2.0337e+10
-4.0000e-01   -2.1150e-11   1.8913e+10
-4.5000e-01   -1.0160e-11   4.4291e+10
-5.0000e-01   -1.1900e-12   4.2017e+11
-5.5000e-01   -8.4800e-12   6.4858e+10
-6.0000e-01   -4.8400e-12   1.2397e+11
-6.5000e-01   -2.3900e-11   2.7197e+10
-7.0000e-01   -1.1350e-11   6.1674e+10
-7.5000e-01   -1.1380e-11   6.5905e+10
-8.0000e-01   -3.3300e-11   2.4024e+10
-8.5000e-01   -3.9150e-11   2.1711e+10
-9.0000e-01   -1.1037e-10   8.1544e+09
-9.5000e-01   -1.8023e-10   5.2710e+09
-1.0000e+00   -2.1883e-10   4.5698e+09
-1.0000e+00   -2.2788e-10   4.3883e+09
-9.5000e-01   -8.0534e-10   1.1796e+09
-9.0000e-01   -5.1571e-10   1.7452e+09
-8.5000e-01   -4.7695e-10   1.7822e+09
-8.0000e-01   -1.5510e-10   5.1580e+09
-7.5000e-01   -1.8769e-10   3.9960e+09
-7.0000e-01   -1.9567e-10   3.5775e+09
-6.5000e-01   -2.3305e-10   2.7891e+09
-6.0000e-01   -1.4093e-10   4.2574e+09
-5.5000e-01   -1.6282e-10   3.3780e+09
-5.0000e-01   -1.0681e-10   4.6812e+09
-4.5000e-01   -8.4750e-11   5.3097e+09
-4.0000e-01   -7.1180e-11   5.6196e+09
-3.5000e-01   -3.6290e-11   9.6445e+09
-3.0000e-01   -2.5140e-11   1.1933e+10
-2.5000e-01   -1.7430e-11   1.4343e+10
-2.0000e-01   -1.1700e-11   1.7094e+10
-1.5000e-01   -1.4570e-11   1.0295e+10
-1.0000e-01   5.6700e-12   -1.7637e+10
-5.0000e-02   1.2560e-11   -3.9809e+09
0.0000e+00   -6.4000e-13   -0.0000e+00
