  Measurement Number     Measurement type
                 125                DC IV

      Measurement ID             SeriesID
       739704.751504                   96

         MeasureMode                Bias1                Bias2
                   2                    2                   -1

                Step  Positive compliance  Negative compliance
                0.05                1e-05                1e-06

  RealMeasuredPoints
                 124

        Bias        Current     Resistance
0.0000e+00   1.4880e-11   0.0000e+00
5.0000e-02   8.3600e-12   5.9809e+09
1.0000e-01   -9.0500e-12   -1.1050e+10
1.5000e-01   -4.8700e-12   -3.0801e+10
2.0000e-01   1.1890e-11   1.6821e+10
2.5000e-01   2.8480e-11   8.7781e+09
3.0000e-01   8.2400e-12   3.6408e+10
3.5000e-01   1.5390e-11   2.2742e+10
4.0000e-01   4.1020e-11   9.7513e+09
4.5000e-01   5.1080e-11   8.8097e+09
5.0000e-01   6.2430e-11   8.0090e+09
5.5000e-01   2.7240e-10   2.0191e+09
6.0000e-01   4.8467e-08   1.2379e+07
6.5000e-01   6.2748e-09   1.0359e+08
7.0000e-01   5.8542e-08   1.1957e+07
7.5000e-01   5.0486e-08   1.4855e+07
8.0000e-01   1.4072e-06   5.6850e+05
8.5000e-01   1.4530e-06   5.8500e+05
9.0000e-01   1.6684e-06   5.3944e+05
9.5000e-01   1.9542e-06   4.8613e+05
1.0000e+00   2.8257e-06   3.5389e+05
1.0500e+00   4.3295e-06   2.4252e+05
1.1000e+00   8.6256e-06   1.2753e+05
1.1500e+00   8.1915e-06   1.4039e+05
1.2000e+00   9.4208e-06   1.2738e+05
1.2500e+00   1.0010e-05   1.2488e+05
1.3000e+00   1.0001e-05   1.2999e+05
1.3500e+00   1.0001e-05   1.3499e+05
1.4000e+00   1.0000e-05   1.4000e+05
1.4500e+00   9.9994e-06   1.4501e+05
1.5000e+00   1.0001e-05   1.4999e+05
1.5500e+00   1.0000e-05   1.5499e+05
1.6000e+00   9.9997e-06   1.6000e+05
1.6500e+00   1.0000e-05   1.6499e+05
1.7000e+00   9.9999e-06   1.7000e+05
1.7500e+00   9.9998e-06   1.7500e+05
1.8000e+00   1.0000e-05   1.8000e+05
1.8500e+00   1.0001e-05   1.8498e+05
1.9000e+00   1.0001e-05   1.8999e+05
1.9500e+00   9.9997e-06   1.9501e+05
2.0000e+00   9.9996e-06   2.0001e+05
2.0000e+00   1.0001e-05   1.9998e+05
1.9500e+00   1.0001e-05   1.9499e+05
1.9000e+00   1.0001e-05   1.8998e+05
1.8500e+00   1.0000e-05   1.8499e+05
1.8000e+00   9.9993e-06   1.8001e+05
1.7500e+00   9.9996e-06   1.7501e+05
1.7000e+00   1.0000e-05   1.6999e+05
1.6500e+00   1.0001e-05   1.6498e+05
1.6000e+00   1.0001e-05   1.5998e+05
1.5500e+00   1.0000e-05   1.5500e+05
1.5000e+00   1.0002e-05   1.4998e+05
1.4500e+00   1.0001e-05   1.4499e+05
1.4000e+00   1.0001e-05   1.3999e+05
1.3500e+00   1.0000e-05   1.3500e+05
1.3000e+00   9.9999e-06   1.3000e+05
1.2500e+00   9.9984e-06   1.2502e+05
1.2000e+00   9.9996e-06   1.2000e+05
1.1500e+00   9.9999e-06   1.1500e+05
1.1000e+00   1.0000e-05   1.1000e+05
1.0500e+00   1.0000e-05   1.0500e+05
1.0000e+00   9.9996e-06   1.0000e+05
9.5000e-01   1.0001e-05   9.4995e+04
9.0000e-01   1.0001e-05   8.9990e+04
8.5000e-01   8.5115e-06   9.9865e+04
8.0000e-01   6.7662e-06   1.1823e+05
7.5000e-01   5.5918e-06   1.3412e+05
7.0000e-01   5.1493e-06   1.3594e+05
6.5000e-01   3.8358e-06   1.6946e+05
6.0000e-01   4.0727e-06   1.4732e+05
5.5000e-01   2.1630e-06   2.5428e+05
5.0000e-01   1.8328e-06   2.7281e+05
4.5000e-01   1.2004e-06   3.7488e+05
4.0000e-01   7.8934e-07   5.0675e+05
3.5000e-01   7.1894e-07   4.8683e+05
3.0000e-01   4.9346e-07   6.0795e+05
2.5000e-01   6.4000e-10   3.9063e+08
2.0000e-01   4.8010e-11   4.1658e+09
1.5000e-01   9.0800e-12   1.6520e+10
1.0000e-01   -1.2060e-11   -8.2919e+09
5.0000e-02   -1.0730e-11   -4.6598e+09
0.0000e+00   -1.2740e-11   -0.0000e+00
0.0000e+00   8.9700e-12   0.0000e+00
-5.0000e-02   8.1000e-12   -6.1728e+09
-1.0000e-01   -8.5900e-12   1.1641e+10
-1.5000e-01   -1.4010e-11   1.0707e+10
-2.0000e-01   -9.6600e-12   2.0704e+10
-2.5000e-01   5.9000e-13   -4.2373e+11
-3.0000e-01   -1.4770e-11   2.0311e+10
-3.5000e-01   -3.9450e-11   8.8720e+09
-4.0000e-01   -5.6140e-11   7.1250e+09
-4.5000e-01   -6.6560e-11   6.7608e+09
-5.0000e-01   -7.4570e-11   6.7051e+09
-5.5000e-01   -8.4680e-11   6.4950e+09
-6.0000e-01   -1.0642e-10   5.6380e+09
-6.5000e-01   -1.4032e-10   4.6323e+09
-7.0000e-01   -1.5817e-10   4.4256e+09
-7.5000e-01   -1.7455e-10   4.2968e+09
-8.0000e-01   -1.9213e-10   4.1638e+09
-8.5000e-01   -2.1181e-10   4.0130e+09
-9.0000e-01   -2.8032e-10   3.2106e+09
-9.5000e-01   -3.1930e-10   2.9753e+09
-1.0000e+00   -3.5758e-10   2.7966e+09
-1.0000e+00   -3.6897e-10   2.7102e+09
-9.5000e-01   -3.1462e-10   3.0195e+09
-9.0000e-01   -2.9058e-10   3.0973e+09
-8.5000e-01   -2.0690e-10   4.1083e+09
-8.0000e-01   -1.8071e-10   4.4270e+09
-7.5000e-01   -1.5830e-10   4.7378e+09
-7.0000e-01   -1.4540e-10   4.8143e+09
-6.5000e-01   -1.3262e-10   4.9012e+09
-6.0000e-01   -1.0336e-10   5.8050e+09
-5.5000e-01   -8.0260e-11   6.8527e+09
-5.0000e-01   -5.6890e-11   8.7889e+09
-4.5000e-01   -5.8320e-11   7.7160e+09
-4.0000e-01   -4.9760e-11   8.0386e+09
-3.5000e-01   -2.2240e-11   1.5737e+10
-3.0000e-01   -4.5800e-12   6.5502e+10
-2.5000e-01   -1.0520e-11   2.3764e+10
-2.0000e-01   -1.8530e-11   1.0793e+10
-1.5000e-01   -1.0660e-11   1.4071e+10
-1.0000e-01   1.1230e-11   -8.9047e+09
-5.0000e-02   1.6720e-11   -2.9904e+09
0.0000e+00   1.8100e-12   0.0000e+00
