  Measurement Number     Measurement type
                   3                DC IV

      Measurement ID             SeriesID
       739912.816857                    0

         MeasureMode                Bias1                Bias2
                   2                    2                   -1

                Step  Positive compliance  Negative compliance
                0.05                1e-06                1e-06

  RealMeasuredPoints
                 124

        Bias        Current     Resistance
0.0000e+00   -8.3000e-13   -0.0000e+00
5.0000e-02   -2.5000e-13   -2.0000e+11
1.0000e-01   1.6240e-11   6.1576e+09
1.5000e-01   -3.3000e-13   -4.5455e+11
2.0000e-01   1.0480e-11   1.9084e+10
2.5000e-01   -9.0000e-14   -2.7778e+12
3.0000e-01   3.2500e-12   9.2308e+10
3.5000e-01   -4.4600e-12   -7.8475e+10
4.0000e-01   7.0000e-14   5.7143e+12
4.5000e-01   1.2720e-11   3.5377e+10
5.0000e-01   5.1800e-12   9.6525e+10
5.5000e-01   9.3000e-13   5.9140e+11
6.0000e-01   -4.9400e-12   -1.2146e+11
6.5000e-01   5.5000e-13   1.1818e+12
7.0000e-01   1.4170e-11   4.9400e+10
7.5000e-01   1.2770e-11   5.8731e+10
8.0000e-01   6.1700e-12   1.2966e+11
8.5000e-01   1.9410e-11   4.3792e+10
9.0000e-01   1.7810e-11   5.0533e+10
9.5000e-01   5.3600e-12   1.7724e+11
1.0000e+00   8.0100e-12   1.2484e+11
1.0500e+00   1.4870e-11   7.0612e+10
1.1000e+00   2.6650e-11   4.1276e+10
1.1500e+00   6.9990e-11   1.6431e+10
1.2000e+00   3.6180e-11   3.3167e+10
1.2500e+00   4.4220e-11   2.8268e+10
1.3000e+00   5.4908e-10   2.3676e+09
1.3500e+00   6.9368e-10   1.9461e+09
1.4000e+00   6.6311e-10   2.1113e+09
1.4500e+00   1.1151e-09   1.3003e+09
1.5000e+00   1.3494e-09   1.1116e+09
1.5500e+00   7.9260e-10   1.9556e+09
1.6000e+00   1.0609e-09   1.5082e+09
1.6500e+00   9.1720e-10   1.7990e+09
1.7000e+00   3.2577e-09   5.2184e+08
1.7500e+00   3.6991e-09   4.7309e+08
1.8000e+00   3.0560e-09   5.8901e+08
1.8500e+00   3.0094e-09   6.1474e+08
1.9000e+00   5.3570e-08   3.5467e+07
1.9500e+00   5.2927e-08   3.6843e+07
2.0000e+00   5.8434e-08   3.4227e+07
2.0000e+00   5.7124e-08   3.5012e+07
1.9500e+00   6.0444e-08   3.2261e+07
1.9000e+00   4.3571e-08   4.3607e+07
1.8500e+00   4.2788e-08   4.3237e+07
1.8000e+00   4.8414e-08   3.7179e+07
1.7500e+00   2.8092e-08   6.2295e+07
1.7000e+00   2.2599e-08   7.5226e+07
1.6500e+00   1.5686e-08   1.0519e+08
1.6000e+00   1.7129e-08   9.3407e+07
1.5500e+00   1.6069e-08   9.6458e+07
1.5000e+00   1.2231e-08   1.2264e+08
1.4500e+00   9.8964e-09   1.4652e+08
1.4000e+00   9.4360e-09   1.4837e+08
1.3500e+00   7.6646e-09   1.7613e+08
1.3000e+00   6.7394e-09   1.9290e+08
1.2500e+00   5.5897e-09   2.2363e+08
1.2000e+00   5.5451e-09   2.1641e+08
1.1500e+00   4.8266e-09   2.3826e+08
1.1000e+00   4.4295e-09   2.4834e+08
1.0500e+00   4.8149e-09   2.1807e+08
1.0000e+00   3.3056e-10   3.0252e+09
9.5000e-01   8.1730e-11   1.1624e+10
9.0000e-01   1.5709e-10   5.7292e+09
8.5000e-01   6.8010e-11   1.2498e+10
8.0000e-01   2.8870e-11   2.7710e+10
7.5000e-01   3.1950e-11   2.3474e+10
7.0000e-01   9.3360e-11   7.4979e+09
6.5000e-01   6.8260e-11   9.5224e+09
6.0000e-01   5.9660e-11   1.0057e+10
5.5000e-01   2.5610e-11   2.1476e+10
5.0000e-01   1.3570e-11   3.6846e+10
4.5000e-01   -8.6500e-12   -5.2023e+10
4.0000e-01   -9.9100e-12   -4.0363e+10
3.5000e-01   -1.0000e-13   -3.5000e+12
3.0000e-01   5.3700e-12   5.5866e+10
2.5000e-01   -2.4400e-12   -1.0246e+11
2.0000e-01   -2.3600e-12   -8.4746e+10
1.5000e-01   -1.5290e-11   -9.8103e+09
1.0000e-01   -2.2500e-12   -4.4444e+10
5.0000e-02   -4.0300e-12   -1.2407e+10
0.0000e+00   1.5600e-12   0.0000e+00
0.0000e+00   -1.1820e-11   -0.0000e+00
-5.0000e-02   6.7700e-12   -7.3855e+09
-1.0000e-01   -1.2090e-11   8.2713e+09
-1.5000e-01   -1.6850e-11   8.9021e+09
-2.0000e-01   2.0000e-13   -1.0000e+12
-2.5000e-01   -3.5100e-12   7.1225e+10
-3.0000e-01   -2.0970e-11   1.4306e+10
-3.5000e-01   -1.6440e-11   2.1290e+10
-4.0000e-01   -9.1300e-12   4.3812e+10
-4.5000e-01   6.1000e-13   -7.3770e+11
-5.0000e-01   -2.5000e-12   2.0000e+11
-5.5000e-01   -1.6430e-11   3.3475e+10
-6.0000e-01   -2.0650e-11   2.9056e+10
-6.5000e-01   -8.1100e-12   8.0148e+10
-7.0000e-01   2.8700e-12   -2.4390e+11
-7.5000e-01   -3.4600e-12   2.1676e+11
-8.0000e-01   -1.9550e-11   4.0921e+10
-8.5000e-01   -2.0950e-11   4.0573e+10
-9.0000e-01   -1.4270e-11   6.3069e+10
-9.5000e-01   2.1900e-12   -4.3379e+11
-1.0000e+00   -1.1140e-11   8.9767e+10
-1.0000e+00   -1.7940e-11   5.5741e+10
-9.5000e-01   -1.8100e-11   5.2486e+10
-9.0000e-01   -8.7600e-12   1.0274e+11
-8.5000e-01   1.3770e-11   -6.1728e+10
-8.0000e-01   5.8400e-12   -1.3699e+11
-7.5000e-01   6.9400e-12   -1.0807e+11
-7.0000e-01   -3.2600e-12   2.1472e+11
-6.5000e-01   -1.8400e-12   3.5326e+11
-6.0000e-01   1.4590e-11   -4.1124e+10
-5.5000e-01   1.2780e-11   -4.3036e+10
-5.0000e-01   1.1570e-11   -4.3215e+10
-4.5000e-01   -7.8700e-12   5.7179e+10
-4.0000e-01   -1.7000e-13   2.3529e+12
-3.5000e-01   1.2000e-11   -2.9167e+10
-3.0000e-01   1.8040e-11   -1.6630e+10
-2.5000e-01   1.0450e-11   -2.3923e+10
-2.0000e-01   -5.2900e-12   3.7807e+10
-1.5000e-01   2.3200e-12   -6.4655e+10
-1.0000e-01   1.5810e-11   -6.3251e+09
-5.0000e-02   -7.0600e-12   7.0822e+09
0.0000e+00   1.0130e-11   0.0000e+00
