  Measurement Number     Measurement type
                  86                DC IV

      Measurement ID             SeriesID
       739704.748668                   96

         MeasureMode                Bias1                Bias2
                   2                    2                   -1

                Step  Positive compliance  Negative compliance
                0.05                1e-05                1e-06

  RealMeasuredPoints
                 124

        Bias        Current     Resistance
0.0000e+00   -6.6100e-12   -0.0000e+00
5.0000e-02   5.8200e-12   8.5911e+09
1.0000e-01   1.8840e-11   5.3079e+09
1.5000e-01   -2.1000e-13   -7.1429e+11
2.0000e-01   -6.0100e-12   -3.3278e+10
2.5000e-01   6.8200e-12   3.6657e+10
3.0000e-01   2.8840e-11   1.0402e+10
3.5000e-01   3.5550e-11   9.8453e+09
4.0000e-01   3.4720e-11   1.1521e+10
4.5000e-01   2.9830e-11   1.5085e+10
5.0000e-01   4.4360e-11   1.1271e+10
5.5000e-01   7.1800e-11   7.6602e+09
6.0000e-01   9.0890e-10   6.6014e+08
6.5000e-01   9.0680e-10   7.1681e+08
7.0000e-01   1.9834e-09   3.5293e+08
7.5000e-01   2.1033e-09   3.5658e+08
8.0000e-01   3.6201e-08   2.2099e+07
8.5000e-01   4.7574e-08   1.7867e+07
9.0000e-01   5.0818e-08   1.7710e+07
9.5000e-01   4.6935e-08   2.0241e+07
1.0000e+00   7.6338e-08   1.3100e+07
1.0500e+00   1.3050e-07   8.0460e+06
1.1000e+00   1.6710e-07   6.5829e+06
1.1500e+00   1.9624e-07   5.8602e+06
1.2000e+00   4.0503e-06   2.9627e+05
1.2500e+00   1.0003e-05   1.2496e+05
1.3000e+00   9.9998e-06   1.3000e+05
1.3500e+00   1.0000e-05   1.3500e+05
1.4000e+00   1.0000e-05   1.3999e+05
1.4500e+00   1.0000e-05   1.4500e+05
1.5000e+00   9.9989e-06   1.5002e+05
1.5500e+00   9.9985e-06   1.5502e+05
1.6000e+00   1.0000e-05   1.6000e+05
1.6500e+00   9.9999e-06   1.6500e+05
1.7000e+00   1.0002e-05   1.6996e+05
1.7500e+00   9.9980e-06   1.7504e+05
1.8000e+00   9.9993e-06   1.8001e+05
1.8500e+00   1.0000e-05   1.8500e+05
1.9000e+00   1.0001e-05   1.8999e+05
1.9500e+00   9.9996e-06   1.9501e+05
2.0000e+00   9.9999e-06   2.0000e+05
2.0000e+00   1.0004e-05   1.9993e+05
1.9500e+00   1.0001e-05   1.9499e+05
1.9000e+00   1.0000e-05   1.8999e+05
1.8500e+00   1.0001e-05   1.8498e+05
1.8000e+00   9.9999e-06   1.8000e+05
1.7500e+00   1.0000e-05   1.7499e+05
1.7000e+00   1.0000e-05   1.7000e+05
1.6500e+00   1.0001e-05   1.6499e+05
1.6000e+00   1.0002e-05   1.5996e+05
1.5500e+00   1.0000e-05   1.5500e+05
1.5000e+00   9.9990e-06   1.5002e+05
1.4500e+00   9.9997e-06   1.4500e+05
1.4000e+00   9.9998e-06   1.4000e+05
1.3500e+00   9.9995e-06   1.3501e+05
1.3000e+00   1.0000e-05   1.3000e+05
1.2500e+00   1.0002e-05   1.2498e+05
1.2000e+00   9.9986e-06   1.2002e+05
1.1500e+00   9.9997e-06   1.1500e+05
1.1000e+00   1.0001e-05   1.0999e+05
1.0500e+00   1.0001e-05   1.0499e+05
1.0000e+00   9.8925e-06   1.0109e+05
9.5000e-01   8.7424e-06   1.0867e+05
9.0000e-01   7.5225e-06   1.1964e+05
8.5000e-01   6.1511e-06   1.3819e+05
8.0000e-01   4.8977e-06   1.6334e+05
7.5000e-01   4.1432e-06   1.8102e+05
7.0000e-01   3.3063e-06   2.1172e+05
6.5000e-01   2.6415e-06   2.4607e+05
6.0000e-01   1.6578e-06   3.6193e+05
5.5000e-01   8.6440e-07   6.3628e+05
5.0000e-01   1.2704e-06   3.9358e+05
4.5000e-01   9.1904e-07   4.8964e+05
4.0000e-01   7.3438e-07   5.4468e+05
3.5000e-01   5.1738e-07   6.7649e+05
3.0000e-01   3.5090e-07   8.5494e+05
2.5000e-01   1.4346e-07   1.7426e+06
2.0000e-01   5.0000e-12   4.0000e+10
1.5000e-01   8.8500e-12   1.6949e+10
1.0000e-01   1.1270e-11   8.8731e+09
5.0000e-02   -1.0700e-11   -4.6729e+09
0.0000e+00   -1.0750e-11   -0.0000e+00
0.0000e+00   -1.0270e-11   -0.0000e+00
-5.0000e-02   -3.5200e-12   1.4205e+10
-1.0000e-01   9.7700e-12   -1.0235e+10
-1.5000e-01   -1.1090e-11   1.3526e+10
-2.0000e-01   -2.3910e-11   8.3647e+09
-2.5000e-01   -1.9210e-11   1.3014e+10
-3.0000e-01   -8.7000e-12   3.4483e+10
-3.5000e-01   -2.4450e-11   1.4315e+10
-4.0000e-01   -5.5010e-11   7.2714e+09
-4.5000e-01   -7.3930e-11   6.0868e+09
-5.0000e-01   -7.4970e-11   6.6693e+09
-5.5000e-01   -8.2840e-11   6.6393e+09
-6.0000e-01   -8.6860e-11   6.9077e+09
-6.5000e-01   -1.3113e-10   4.9569e+09
-7.0000e-01   -1.6324e-10   4.2882e+09
-7.5000e-01   -1.7080e-10   4.3911e+09
-8.0000e-01   -1.8820e-10   4.2508e+09
-8.5000e-01   -2.1113e-10   4.0260e+09
-9.0000e-01   -2.6011e-10   3.4601e+09
-9.5000e-01   -3.0332e-10   3.1320e+09
-1.0000e+00   -3.6920e-10   2.7086e+09
-1.0000e+00   -3.3555e-10   2.9802e+09
-9.5000e-01   -2.8865e-10   3.2912e+09
-9.0000e-01   -2.6707e-10   3.3699e+09
-8.5000e-01   -2.4817e-10   3.4251e+09
-8.0000e-01   -2.1066e-10   3.7976e+09
-7.5000e-01   -1.5655e-10   4.7908e+09
-7.0000e-01   -1.1864e-10   5.9002e+09
-6.5000e-01   -1.0969e-10   5.9258e+09
-6.0000e-01   -1.0141e-10   5.9166e+09
-5.5000e-01   -9.1760e-11   5.9939e+09
-5.0000e-01   -5.6730e-11   8.8137e+09
-4.5000e-01   -3.5380e-11   1.2719e+10
-4.0000e-01   -2.9720e-11   1.3459e+10
-3.5000e-01   -3.3220e-11   1.0536e+10
-3.0000e-01   -2.9870e-11   1.0044e+10
-2.5000e-01   -1.5130e-11   1.6523e+10
-2.0000e-01   -5.2400e-12   3.8168e+10
-1.5000e-01   1.1400e-11   -1.3158e+10
-1.0000e-01   1.6430e-11   -6.0864e+09
-5.0000e-02   1.4200e-12   -3.5211e+10
0.0000e+00   -9.9900e-12   -0.0000e+00
