  Measurement Number     Measurement type
                   1                DC IV

      Measurement ID             SeriesID
       739707.680192                    0

         MeasureMode                Bias1                Bias2
                   2                    2                   -1

                Step  Positive compliance  Negative compliance
                0.05                1e-06                1e-06

  RealMeasuredPoints
                 124

        Bias        Current     Resistance
0.0000e+00   -3.8000e-12   -0.0000e+00
5.0000e-02   -2.8900e-12   -1.7301e+10
1.0000e-01   2.4800e-12   4.0323e+10
1.5000e-01   1.6600e-12   9.0361e+10
2.0000e-01   1.9300e-12   1.0363e+11
2.5000e-01   -1.5300e-12   -1.6340e+11
3.0000e-01   -5.4000e-13   -5.5556e+11
3.5000e-01   3.7200e-12   9.4086e+10
4.0000e-01   3.5700e-12   1.1204e+11
4.5000e-01   -2.0300e-12   -2.2167e+11
5.0000e-01   -7.7000e-13   -6.4935e+11
5.5000e-01   3.8000e-13   1.4474e+12
6.0000e-01   5.1200e-12   1.1719e+11
6.5000e-01   6.4500e-12   1.0078e+11
7.0000e-01   2.6600e-12   2.6316e+11
7.5000e-01   1.5800e-12   4.7468e+11
8.0000e-01   3.6600e-12   2.1858e+11
8.5000e-01   5.7000e-12   1.4912e+11
9.0000e-01   6.8500e-12   1.3139e+11
9.5000e-01   1.0050e-11   9.4527e+10
1.0000e+00   5.1000e-12   1.9608e+11
1.0500e+00   5.8600e-12   1.7918e+11
1.1000e+00   7.5000e-12   1.4667e+11
1.1500e+00   1.3390e-11   8.5885e+10
1.2000e+00   1.2150e-11   9.8765e+10
1.2500e+00   1.5460e-11   8.0854e+10
1.3000e+00   1.7150e-11   7.5802e+10
1.3500e+00   1.3700e-11   9.8540e+10
1.4000e+00   1.3210e-11   1.0598e+11
1.4500e+00   1.5580e-11   9.3068e+10
1.5000e+00   2.1650e-11   6.9284e+10
1.5500e+00   2.0850e-11   7.4341e+10
1.6000e+00   2.2890e-11   6.9900e+10
1.6500e+00   2.9600e-11   5.5743e+10
1.7000e+00   2.5690e-11   6.6174e+10
1.7500e+00   3.8270e-11   4.5728e+10
1.8000e+00   4.8260e-11   3.7298e+10
1.8500e+00   5.6830e-11   3.2553e+10
1.9000e+00   6.4560e-11   2.9430e+10
1.9500e+00   6.6400e-11   2.9367e+10
2.0000e+00   8.1370e-11   2.4579e+10
2.0000e+00   7.5250e-11   2.6578e+10
1.9500e+00   6.1880e-11   3.1513e+10
1.9000e+00   4.8410e-11   3.9248e+10
1.8500e+00   4.9000e-11   3.7755e+10
1.8000e+00   4.1290e-11   4.3594e+10
1.7500e+00   3.3300e-11   5.2553e+10
1.7000e+00   2.4240e-11   7.0132e+10
1.6500e+00   2.4940e-11   6.6159e+10
1.6000e+00   2.4270e-11   6.5925e+10
1.5500e+00   1.9930e-11   7.7772e+10
1.5000e+00   2.3200e-11   6.4655e+10
1.4500e+00   1.6330e-11   8.8794e+10
1.4000e+00   1.0760e-11   1.3011e+11
1.3500e+00   1.1970e-11   1.1278e+11
1.3000e+00   1.3590e-11   9.5659e+10
1.2500e+00   1.3290e-11   9.4056e+10
1.2000e+00   1.3670e-11   8.7783e+10
1.1500e+00   1.1990e-11   9.5913e+10
1.1000e+00   8.3200e-12   1.3221e+11
1.0500e+00   9.9400e-12   1.0563e+11
1.0000e+00   1.0060e-11   9.9404e+10
9.5000e-01   9.0400e-12   1.0509e+11
9.0000e-01   5.6600e-12   1.5901e+11
8.5000e-01   2.0900e-12   4.0670e+11
8.0000e-01   -2.1100e-12   -3.7915e+11
7.5000e-01   4.3000e-13   1.7442e+12
7.0000e-01   3.2400e-12   2.1605e+11
6.5000e-01   4.4900e-12   1.4477e+11
6.0000e-01   1.4200e-12   4.2254e+11
5.5000e-01   6.9000e-13   7.9710e+11
5.0000e-01   -1.2600e-12   -3.9683e+11
4.5000e-01   -1.0000e-13   -4.5000e+12
4.0000e-01   5.4300e-12   7.3665e+10
3.5000e-01   1.3400e-12   2.6119e+11
3.0000e-01   5.5300e-12   5.4250e+10
2.5000e-01   3.4800e-12   7.1839e+10
2.0000e-01   -4.7400e-12   -4.2194e+10
1.5000e-01   -2.0700e-12   -7.2464e+10
1.0000e-01   5.6000e-13   1.7857e+11
5.0000e-02   2.2200e-12   2.2523e+10
0.0000e+00   9.9000e-13   0.0000e+00
0.0000e+00   -2.4200e-12   -0.0000e+00
-5.0000e-02   -2.3000e-13   2.1739e+11
-1.0000e-01   8.0000e-13   -1.2500e+11
-1.5000e-01   2.4600e-12   -6.0976e+10
-2.0000e-01   1.6500e-12   -1.2121e+11
-2.5000e-01   -1.8700e-12   1.3369e+11
-3.0000e-01   -1.3800e-12   2.1739e+11
-3.5000e-01   -1.7700e-12   1.9774e+11
-4.0000e-01   2.3700e-12   -1.6878e+11
-4.5000e-01   -1.5600e-12   2.8846e+11
-5.0000e-01   -7.4200e-12   6.7385e+10
-5.5000e-01   -4.1400e-12   1.3285e+11
-6.0000e-01   7.1000e-13   -8.4507e+11
-6.5000e-01   -4.5900e-12   1.4161e+11
-7.0000e-01   -5.1800e-12   1.3514e+11
-7.5000e-01   -7.2700e-12   1.0316e+11
-8.0000e-01   -6.8000e-12   1.1765e+11
-8.5000e-01   -3.3800e-12   2.5148e+11
-9.0000e-01   -1.8800e-12   4.7872e+11
-9.5000e-01   -4.3100e-12   2.2042e+11
-1.0000e+00   -6.6900e-12   1.4948e+11
-1.0000e+00   -1.3520e-11   7.3964e+10
-9.5000e-01   -7.8400e-12   1.2117e+11
-9.0000e-01   -2.6500e-12   3.3962e+11
-8.5000e-01   -1.9400e-12   4.3814e+11
-8.0000e-01   -6.5800e-12   1.2158e+11
-7.5000e-01   -6.6600e-12   1.1261e+11
-7.0000e-01   -2.0200e-12   3.4653e+11
-6.5000e-01   4.0000e-14   -1.6250e+13
-6.0000e-01   8.0000e-14   -7.5000e+12
-5.5000e-01   -6.4700e-12   8.5008e+10
-5.0000e-01   -6.1400e-12   8.1433e+10
-4.5000e-01   -4.1100e-12   1.0949e+11
-4.0000e-01   -5.7000e-13   7.0175e+11
-3.5000e-01   -1.6500e-12   2.1212e+11
-3.0000e-01   -3.3200e-12   9.0361e+10
-2.5000e-01   2.0400e-12   -1.2255e+11
-2.0000e-01   -2.0500e-12   9.7561e+10
-1.5000e-01   1.7000e-12   -8.8235e+10
-1.0000e-01   3.8200e-12   -2.6178e+10
-5.0000e-02   1.2400e-12   -4.0323e+10
0.0000e+00   4.5600e-12   0.0000e+00
