  Measurement Number     Measurement type
                   3                DC IV

      Measurement ID             SeriesID
       739708.657801                    0

         MeasureMode                Bias1                Bias2
                   2                    2                   -1

                Step  Positive compliance  Negative compliance
                0.05                1e-05                1e-06

  RealMeasuredPoints
                 124

        Bias        Current     Resistance
0.0000e+00   7.5000e-13   0.0000e+00
5.0000e-02   2.0650e-11   2.4213e+09
1.0000e-01   5.8770e-11   1.7015e+09
1.5000e-01   9.8600e-11   1.5213e+09
2.0000e-01   1.4309e-10   1.3977e+09
2.5000e-01   1.7626e-10   1.4184e+09
3.0000e-01   2.1432e-10   1.3998e+09
3.5000e-01   2.6774e-10   1.3072e+09
4.0000e-01   3.0769e-10   1.3000e+09
4.5000e-01   3.4185e-10   1.3164e+09
5.0000e-01   3.7926e-10   1.3184e+09
5.5000e-01   4.5134e-10   1.2186e+09
6.0000e-01   5.1691e-10   1.1607e+09
6.5000e-01   5.7948e-10   1.1217e+09
7.0000e-01   6.8110e-10   1.0277e+09
7.5000e-01   7.8715e-10   9.5280e+08
8.0000e-01   9.4246e-10   8.4884e+08
8.5000e-01   1.0864e-09   7.8240e+08
9.0000e-01   1.3056e-09   6.8934e+08
9.5000e-01   1.4893e-09   6.3788e+08
1.0000e+00   1.6924e-09   5.9088e+08
1.0500e+00   2.0103e-09   5.2231e+08
1.1000e+00   2.3186e-09   4.7442e+08
1.1500e+00   2.6471e-09   4.3444e+08
1.2000e+00   3.0470e-09   3.9383e+08
1.2500e+00   3.2631e-09   3.8307e+08
1.3000e+00   3.7851e-09   3.4345e+08
1.3500e+00   4.1690e-09   3.2382e+08
1.4000e+00   4.7643e-09   2.9385e+08
1.4500e+00   5.4469e-09   2.6621e+08
1.5000e+00   6.0227e-09   2.4906e+08
1.5500e+00   6.5366e-09   2.3713e+08
1.6000e+00   7.3273e-09   2.1836e+08
1.6500e+00   7.9152e-09   2.0846e+08
1.7000e+00   8.2625e-09   2.0575e+08
1.7500e+00   9.0568e-09   1.9322e+08
1.8000e+00   1.0101e-08   1.7819e+08
1.8500e+00   1.2753e-08   1.4507e+08
1.9000e+00   1.3723e-08   1.3845e+08
1.9500e+00   1.4231e-08   1.3702e+08
2.0000e+00   1.4820e-08   1.3495e+08
2.0000e+00   1.4502e-08   1.3791e+08
1.9500e+00   1.5172e-08   1.2853e+08
1.9000e+00   1.3963e-08   1.3607e+08
1.8500e+00   1.2669e-08   1.4602e+08
1.8000e+00   1.1731e-08   1.5343e+08
1.7500e+00   1.0849e-08   1.6131e+08
1.7000e+00   9.1871e-09   1.8504e+08
1.6500e+00   7.8075e-09   2.1134e+08
1.6000e+00   6.6112e-09   2.4201e+08
1.5500e+00   6.0538e-09   2.5604e+08
1.5000e+00   5.2592e-09   2.8521e+08
1.4500e+00   4.7526e-09   3.0510e+08
1.4000e+00   4.1832e-09   3.3467e+08
1.3500e+00   3.7033e-09   3.6454e+08
1.3000e+00   3.6597e-09   3.5522e+08
1.2500e+00   3.0943e-09   4.0397e+08
1.2000e+00   2.7021e-09   4.4410e+08
1.1500e+00   2.5154e-09   4.5718e+08
1.1000e+00   2.2483e-09   4.8926e+08
1.0500e+00   1.9240e-09   5.4574e+08
1.0000e+00   1.7296e-09   5.7817e+08
9.5000e-01   1.4750e-09   6.4407e+08
9.0000e-01   1.2649e-09   7.1152e+08
8.5000e-01   1.1092e-09   7.6632e+08
8.0000e-01   9.4780e-10   8.4406e+08
7.5000e-01   8.3143e-10   9.0206e+08
7.0000e-01   6.8362e-10   1.0240e+09
6.5000e-01   5.8657e-10   1.1081e+09
6.0000e-01   5.3037e-10   1.1313e+09
5.5000e-01   4.5132e-10   1.2186e+09
5.0000e-01   3.9239e-10   1.2742e+09
4.5000e-01   3.4436e-10   1.3068e+09
4.0000e-01   2.9576e-10   1.3524e+09
3.5000e-01   2.4962e-10   1.4021e+09
3.0000e-01   2.0112e-10   1.4916e+09
2.5000e-01   1.3962e-10   1.7906e+09
2.0000e-01   1.1618e-10   1.7215e+09
1.5000e-01   8.6590e-11   1.7323e+09
1.0000e-01   4.2950e-11   2.3283e+09
5.0000e-02   1.3910e-11   3.5945e+09
0.0000e+00   -3.5600e-12   -0.0000e+00
0.0000e+00   -2.2900e-12   -0.0000e+00
-5.0000e-02   -3.8900e-11   1.2853e+09
-1.0000e-01   -5.7820e-11   1.7295e+09
-1.5000e-01   -7.6710e-11   1.9554e+09
-2.0000e-01   -1.1114e-10   1.7995e+09
-2.5000e-01   -1.4945e-10   1.6728e+09
-3.0000e-01   -1.7051e-10   1.7594e+09
-3.5000e-01   -1.9355e-10   1.8083e+09
-4.0000e-01   -2.2485e-10   1.7790e+09
-4.5000e-01   -2.8619e-10   1.5724e+09
-5.0000e-01   -3.4424e-10   1.4525e+09
-5.5000e-01   -3.5854e-10   1.5340e+09
-6.0000e-01   -4.5968e-10   1.3053e+09
-6.5000e-01   -5.3846e-10   1.2071e+09
-7.0000e-01   -5.5958e-10   1.2509e+09
-7.5000e-01   -6.4199e-10   1.1682e+09
-8.0000e-01   -7.6827e-10   1.0413e+09
-8.5000e-01   -8.9599e-10   9.4867e+08
-9.0000e-01   -1.0579e-09   8.5074e+08
-9.5000e-01   -1.2008e-09   7.9114e+08
-1.0000e+00   -1.3907e-09   7.1906e+08
-1.0000e+00   -1.3838e-09   7.2265e+08
-9.5000e-01   -1.2176e-09   7.8022e+08
-9.0000e-01   -1.0023e-09   8.9793e+08
-8.5000e-01   -9.1536e-10   9.2860e+08
-8.0000e-01   -7.6395e-10   1.0472e+09
-7.5000e-01   -6.5828e-10   1.1393e+09
-7.0000e-01   -5.3607e-10   1.3058e+09
-6.5000e-01   -4.7762e-10   1.3609e+09
-6.0000e-01   -4.1087e-10   1.4603e+09
-5.5000e-01   -3.4855e-10   1.5780e+09
-5.0000e-01   -2.8426e-10   1.7590e+09
-4.5000e-01   -2.2535e-10   1.9969e+09
-4.0000e-01   -2.0424e-10   1.9585e+09
-3.5000e-01   -1.7497e-10   2.0003e+09
-3.0000e-01   -1.4671e-10   2.0449e+09
-2.5000e-01   -1.0920e-10   2.2894e+09
-2.0000e-01   -7.6530e-11   2.6134e+09
-1.5000e-01   -6.1810e-11   2.4268e+09
-1.0000e-01   -4.3240e-11   2.3127e+09
-5.0000e-02   -1.4610e-11   3.4223e+09
0.0000e+00   8.2200e-12   0.0000e+00
