  Measurement Number     Measurement type
                  16                DC IV

      Measurement ID             SeriesID
       739694.766841                    0

         MeasureMode                Bias1                Bias2
                   2                   -3                  2.5

                Step  Positive compliance  Negative compliance
                 0.1                 0.01                 0.01

  RealMeasuredPoints
                 114

        Bias        Current     Resistance
0.0000e+00   2.7730e-11   0.0000e+00
-1.0000e-01   -1.1436e-07   8.7443e+05
-2.0000e-01   -2.9672e-07   6.7404e+05
-3.0000e-01   -5.8980e-07   5.0865e+05
-4.0000e-01   -1.0098e-06   3.9610e+05
-5.0000e-01   -2.6128e-06   1.9137e+05
-6.0000e-01   -3.7256e-06   1.6105e+05
-7.0000e-01   -5.4983e-06   1.2731e+05
-8.0000e-01   -1.1458e-05   6.9820e+04
-9.0000e-01   -1.5382e-05   5.8510e+04
-1.0000e+00   -5.3582e-05   1.8663e+04
-1.1000e+00   -1.6066e-04   6.8468e+03
-1.2000e+00   -1.6066e-04   7.4692e+03
-1.3000e+00   -2.5628e-04   5.0726e+03
-1.4000e+00   -3.6950e-04   3.7889e+03
-1.5000e+00   -4.3528e-04   3.4461e+03
-1.6000e+00   -5.0626e-04   3.1604e+03
-1.7000e+00   -1.0710e-03   1.5873e+03
-1.8000e+00   -1.2184e-03   1.4773e+03
-1.9000e+00   -1.3270e-03   1.4318e+03
-2.0000e+00   -1.4288e-03   1.3998e+03
-2.1000e+00   -1.9946e-03   1.0528e+03
-2.2000e+00   -2.7948e-03   7.8718e+02
-2.3000e+00   -2.9682e-03   7.7488e+02
-2.4000e+00   -3.4694e-03   6.9176e+02
-2.5000e+00   -3.6554e-03   6.8392e+02
-2.6000e+00   -3.8226e-03   6.8017e+02
-2.7000e+00   -4.0016e-03   6.7473e+02
-2.8000e+00   -4.2986e-03   6.5137e+02
-2.9000e+00   -4.7076e-03   6.1603e+02
-3.0000e+00   -4.9848e-03   6.0183e+02
-3.0000e+00   -4.9882e-03   6.0142e+02
-2.9000e+00   -4.7448e-03   6.1120e+02
-2.8000e+00   -4.4816e-03   6.2478e+02
-2.7000e+00   -4.2396e-03   6.3685e+02
-2.6000e+00   -4.0010e-03   6.4984e+02
-2.5000e+00   -3.7618e-03   6.6458e+02
-2.4000e+00   -3.5258e-03   6.8070e+02
-2.3000e+00   -3.2912e-03   6.9883e+02
-2.2000e+00   -3.0610e-03   7.1872e+02
-2.1000e+00   -2.8272e-03   7.4278e+02
-2.0000e+00   -2.6062e-03   7.6740e+02
-1.9000e+00   -2.3848e-03   7.9671e+02
-1.8000e+00   -2.1678e-03   8.3033e+02
-1.7000e+00   -1.9546e-03   8.6974e+02
-1.6000e+00   -1.7486e-03   9.1502e+02
-1.5000e+00   -1.5504e-03   9.6749e+02
-1.4000e+00   -1.3602e-03   1.0293e+03
-1.3000e+00   -1.1806e-03   1.1011e+03
-1.2000e+00   -1.0130e-03   1.1846e+03
-1.1000e+00   -8.5412e-04   1.2879e+03
-1.0000e+00   -7.1074e-04   1.4070e+03
-9.0000e-01   -5.8134e-04   1.5481e+03
-8.0000e-01   -4.6596e-04   1.7169e+03
-7.0000e-01   -3.6552e-04   1.9151e+03
-6.0000e-01   -2.7904e-04   2.1502e+03
-5.0000e-01   -2.0526e-04   2.4359e+03
-4.0000e-01   -1.4308e-04   2.7956e+03
-3.0000e-01   -9.3406e-05   3.2118e+03
-2.0000e-01   -5.3162e-05   3.7621e+03
-1.0000e-01   -2.2838e-05   4.3787e+03
0.0000e+00   5.6454e-09   0.0000e+00
0.0000e+00   1.1430e-09   0.0000e+00
1.0000e-01   2.2438e-05   4.4567e+03
2.0000e-01   5.1348e-05   3.8950e+03
3.0000e-01   8.9190e-05   3.3636e+03
4.0000e-01   1.3600e-04   2.9412e+03
5.0000e-01   1.9262e-04   2.5958e+03
6.0000e-01   2.5946e-04   2.3125e+03
7.0000e-01   3.4144e-04   2.0501e+03
8.0000e-01   4.3084e-04   1.8568e+03
9.0000e-01   5.3190e-04   1.6920e+03
1.0000e+00   6.5344e-04   1.5304e+03
1.1000e+00   7.7726e-04   1.4152e+03
1.2000e+00   9.3116e-04   1.2887e+03
1.3000e+00   1.1093e-03   1.1719e+03
1.4000e+00   1.3540e-03   1.0340e+03
1.5000e+00   1.5612e-03   9.6080e+02
1.6000e+00   1.8076e-03   8.8515e+02
1.7000e+00   2.0664e-03   8.2269e+02
1.8000e+00   2.3118e-03   7.7861e+02
1.9000e+00   2.5476e-03   7.4580e+02
2.0000e+00   2.7810e-03   7.1917e+02
2.1000e+00   2.9522e-03   7.1133e+02
2.2000e+00   1.6532e-03   1.3308e+03
2.3000e+00   1.2822e-03   1.7938e+03
2.4000e+00   7.4096e-04   3.2390e+03
2.5000e+00   7.8834e-04   3.1712e+03
2.5000e+00   6.3112e-04   3.9612e+03
2.4000e+00   5.1680e-04   4.6440e+03
2.3000e+00   4.3186e-04   5.3258e+03
2.2000e+00   3.6998e-04   5.9463e+03
2.1000e+00   3.2114e-04   6.5392e+03
2.0000e+00   2.8382e-04   7.0467e+03
1.9000e+00   2.4708e-04   7.6898e+03
1.8000e+00   2.1984e-04   8.1878e+03
1.7000e+00   1.9628e-04   8.6611e+03
1.6000e+00   1.7632e-04   9.0744e+03
1.5000e+00   1.5950e-04   9.4044e+03
1.4000e+00   1.4476e-04   9.6712e+03
1.3000e+00   1.2866e-04   1.0104e+04
1.2000e+00   1.1520e-04   1.0417e+04
1.1000e+00   1.0280e-04   1.0700e+04
1.0000e+00   9.4710e-05   1.0559e+04
9.0000e-01   8.2822e-05   1.0867e+04
8.0000e-01   7.3408e-05   1.0898e+04
7.0000e-01   6.1002e-05   1.1475e+04
6.0000e-01   5.0430e-05   1.1898e+04
5.0000e-01   4.0550e-05   1.2330e+04
4.0000e-01   3.2184e-05   1.2429e+04
3.0000e-01   2.1478e-05   1.3968e+04
2.0000e-01   1.3186e-05   1.5168e+04
1.0000e-01   5.7146e-06   1.7499e+04
0.0000e+00   9.9200e-10   0.0000e+00
