  Measurement Number     Measurement type
                  23                DC IV

      Measurement ID             SeriesID
       739694.767233                   76

         MeasureMode                Bias1                Bias2
                   2                   -3                  2.5

                Step  Positive compliance  Negative compliance
                 0.1                 0.01                 0.01

  RealMeasuredPoints
                 114

        Bias        Current     Resistance
0.0000e+00   5.1538e-09   0.0000e+00
-1.0000e-01   -1.7696e-05   5.6510e+03
-2.0000e-01   -3.7544e-05   5.3271e+03
-3.0000e-01   -5.9504e-05   5.0417e+03
-4.0000e-01   -8.2402e-05   4.8543e+03
-5.0000e-01   -1.0870e-04   4.5997e+03
-6.0000e-01   -1.3566e-04   4.4228e+03
-7.0000e-01   -1.6854e-04   4.1533e+03
-8.0000e-01   -2.0448e-04   3.9124e+03
-9.0000e-01   -2.4300e-04   3.7037e+03
-1.0000e+00   -2.8808e-04   3.4713e+03
-1.1000e+00   -4.2998e-04   2.5583e+03
-1.2000e+00   -8.8720e-04   1.3526e+03
-1.3000e+00   -1.1326e-03   1.1478e+03
-1.4000e+00   -1.3584e-03   1.0306e+03
-1.5000e+00   -1.5502e-03   9.6762e+02
-1.6000e+00   -1.8252e-03   8.7662e+02
-1.7000e+00   -2.0416e-03   8.3268e+02
-1.8000e+00   -2.3366e-03   7.7035e+02
-1.9000e+00   -2.5576e-03   7.4288e+02
-2.0000e+00   -2.7980e-03   7.1480e+02
-2.1000e+00   -3.0166e-03   6.9615e+02
-2.2000e+00   -3.2230e-03   6.8259e+02
-2.3000e+00   -3.4174e-03   6.7303e+02
-2.4000e+00   -3.5976e-03   6.6711e+02
-2.5000e+00   -3.7798e-03   6.6141e+02
-2.6000e+00   -3.9506e-03   6.5813e+02
-2.7000e+00   -4.1712e-03   6.4730e+02
-2.8000e+00   -4.3682e-03   6.4100e+02
-2.9000e+00   -4.5574e-03   6.3633e+02
-3.0000e+00   -4.7600e-03   6.3025e+02
-3.0000e+00   -4.7630e-03   6.2986e+02
-2.9000e+00   -4.5374e-03   6.3913e+02
-2.8000e+00   -4.3046e-03   6.5047e+02
-2.7000e+00   -4.0644e-03   6.6430e+02
-2.6000e+00   -3.8332e-03   6.7828e+02
-2.5000e+00   -3.6044e-03   6.9360e+02
-2.4000e+00   -3.3768e-03   7.1073e+02
-2.3000e+00   -3.1538e-03   7.2928e+02
-2.2000e+00   -2.9336e-03   7.4993e+02
-2.1000e+00   -2.7206e-03   7.7189e+02
-2.0000e+00   -2.5070e-03   7.9777e+02
-1.9000e+00   -2.3000e-03   8.2609e+02
-1.8000e+00   -2.0960e-03   8.5878e+02
-1.7000e+00   -1.8994e-03   8.9502e+02
-1.6000e+00   -1.7062e-03   9.3776e+02
-1.5000e+00   -1.5218e-03   9.8567e+02
-1.4000e+00   -1.3456e-03   1.0404e+03
-1.3000e+00   -1.1768e-03   1.1047e+03
-1.2000e+00   -1.0176e-03   1.1792e+03
-1.1000e+00   -8.6898e-04   1.2659e+03
-1.0000e+00   -7.3036e-04   1.3692e+03
-9.0000e-01   -6.0454e-04   1.4887e+03
-8.0000e-01   -4.9008e-04   1.6324e+03
-7.0000e-01   -3.8886e-04   1.8001e+03
-6.0000e-01   -2.9960e-04   2.0027e+03
-5.0000e-01   -2.2422e-04   2.2300e+03
-4.0000e-01   -1.5876e-04   2.5195e+03
-3.0000e-01   -1.0470e-04   2.8653e+03
-2.0000e-01   -6.0996e-05   3.2789e+03
-1.0000e-01   -2.6930e-05   3.7133e+03
0.0000e+00   1.0175e-08   0.0000e+00
0.0000e+00   1.0407e-08   0.0000e+00
1.0000e-01   2.6424e-05   3.7844e+03
2.0000e-01   5.8822e-05   3.4001e+03
3.0000e-01   9.9914e-05   3.0026e+03
4.0000e-01   1.5002e-04   2.6663e+03
5.0000e-01   2.0940e-04   2.3878e+03
6.0000e-01   2.7872e-04   2.1527e+03
7.0000e-01   3.5908e-04   1.9494e+03
8.0000e-01   4.5374e-04   1.7631e+03
9.0000e-01   5.5548e-04   1.6202e+03
1.0000e+00   6.8016e-04   1.4702e+03
1.1000e+00   8.1446e-04   1.3506e+03
1.2000e+00   9.6534e-04   1.2431e+03
1.3000e+00   1.1468e-03   1.1336e+03
1.4000e+00   1.3364e-03   1.0476e+03
1.5000e+00   1.5192e-03   9.8736e+02
1.6000e+00   1.7102e-03   9.3556e+02
1.7000e+00   1.9676e-03   8.6400e+02
1.8000e+00   2.2022e-03   8.1736e+02
1.9000e+00   2.4232e-03   7.8409e+02
2.0000e+00   2.6374e-03   7.5832e+02
2.1000e+00   2.8356e-03   7.4058e+02
2.2000e+00   2.9942e-03   7.3475e+02
2.3000e+00   2.6760e-03   8.5949e+02
2.4000e+00   1.7022e-03   1.4099e+03
2.5000e+00   1.6560e-03   1.5097e+03
2.5000e+00   1.6070e-03   1.5557e+03
2.4000e+00   1.4284e-03   1.6802e+03
2.3000e+00   1.2860e-03   1.7885e+03
2.2000e+00   1.1884e-03   1.8512e+03
2.1000e+00   1.0726e-03   1.9579e+03
2.0000e+00   9.6112e-04   2.0809e+03
1.9000e+00   8.6810e-04   2.1887e+03
1.8000e+00   7.9094e-04   2.2758e+03
1.7000e+00   7.1478e-04   2.3784e+03
1.6000e+00   6.4528e-04   2.4795e+03
1.5000e+00   5.8274e-04   2.5740e+03
1.4000e+00   5.2576e-04   2.6628e+03
1.3000e+00   4.7096e-04   2.7603e+03
1.2000e+00   4.2108e-04   2.8498e+03
1.1000e+00   3.7434e-04   2.9385e+03
1.0000e+00   3.2954e-04   3.0345e+03
9.0000e-01   2.8786e-04   3.1265e+03
8.0000e-01   2.4712e-04   3.2373e+03
7.0000e-01   2.0896e-04   3.3499e+03
6.0000e-01   1.7276e-04   3.4730e+03
5.0000e-01   1.3828e-04   3.6159e+03
4.0000e-01   1.0606e-04   3.7715e+03
3.0000e-01   7.5938e-05   3.9506e+03
2.0000e-01   4.8066e-05   4.1609e+03
1.0000e-01   2.2598e-05   4.4252e+03
0.0000e+00   7.1570e-09   0.0000e+00
