  Measurement Number     Measurement type
                  36                DC IV

      Measurement ID             SeriesID
       739694.768233                   75

         MeasureMode                Bias1                Bias2
                   2                   -3                  2.5

                Step  Positive compliance  Negative compliance
                 0.1                 0.01                 0.01

  RealMeasuredPoints
                 114

        Bias        Current     Resistance
0.0000e+00   1.1043e-08   0.0000e+00
-1.0000e-01   -2.2666e-05   4.4119e+03
-2.0000e-01   -4.7680e-05   4.1946e+03
-3.0000e-01   -7.3664e-05   4.0725e+03
-4.0000e-01   -1.0452e-04   3.8269e+03
-5.0000e-01   -1.2680e-04   3.9432e+03
-6.0000e-01   -1.6052e-04   3.7379e+03
-7.0000e-01   -2.0344e-04   3.4408e+03
-8.0000e-01   -2.3126e-04   3.4593e+03
-9.0000e-01   -2.9672e-04   3.0332e+03
-1.0000e+00   -3.8438e-04   2.6016e+03
-1.1000e+00   -5.6816e-04   1.9361e+03
-1.2000e+00   -8.6948e-04   1.3801e+03
-1.3000e+00   -1.2446e-03   1.0445e+03
-1.4000e+00   -1.4774e-03   9.4761e+02
-1.5000e+00   -1.7616e-03   8.5150e+02
-1.6000e+00   -2.0312e-03   7.8771e+02
-1.7000e+00   -2.4160e-03   7.0364e+02
-1.8000e+00   -2.6750e-03   6.7290e+02
-1.9000e+00   -2.9514e-03   6.4376e+02
-2.0000e+00   -3.2344e-03   6.1835e+02
-2.1000e+00   -3.4910e-03   6.0155e+02
-2.2000e+00   -3.7276e-03   5.9019e+02
-2.3000e+00   -3.9496e-03   5.8234e+02
-2.4000e+00   -4.1512e-03   5.7815e+02
-2.5000e+00   -4.3366e-03   5.7649e+02
-2.6000e+00   -4.5306e-03   5.7388e+02
-2.7000e+00   -4.7346e-03   5.7027e+02
-2.8000e+00   -4.9776e-03   5.6252e+02
-2.9000e+00   -5.2364e-03   5.5382e+02
-3.0000e+00   -5.5130e-03   5.4417e+02
-3.0000e+00   -5.5090e-03   5.4456e+02
-2.9000e+00   -5.2240e-03   5.5513e+02
-2.8000e+00   -4.9366e-03   5.6719e+02
-2.7000e+00   -4.6780e-03   5.7717e+02
-2.6000e+00   -4.4164e-03   5.8871e+02
-2.5000e+00   -4.1560e-03   6.0154e+02
-2.4000e+00   -3.8946e-03   6.1624e+02
-2.3000e+00   -3.6422e-03   6.3149e+02
-2.2000e+00   -3.3906e-03   6.4885e+02
-2.1000e+00   -3.1422e-03   6.6832e+02
-2.0000e+00   -2.9024e-03   6.8908e+02
-1.9000e+00   -2.6662e-03   7.1262e+02
-1.8000e+00   -2.4346e-03   7.3934e+02
-1.7000e+00   -2.2090e-03   7.6958e+02
-1.6000e+00   -1.9902e-03   8.0394e+02
-1.5000e+00   -1.7786e-03   8.4336e+02
-1.4000e+00   -1.5720e-03   8.9059e+02
-1.3000e+00   -1.3746e-03   9.4573e+02
-1.2000e+00   -1.1862e-03   1.0116e+03
-1.1000e+00   -1.0104e-03   1.0887e+03
-1.0000e+00   -8.4876e-04   1.1782e+03
-9.0000e-01   -7.0028e-04   1.2852e+03
-8.0000e-01   -5.6788e-04   1.4087e+03
-7.0000e-01   -4.4948e-04   1.5574e+03
-6.0000e-01   -3.4674e-04   1.7304e+03
-5.0000e-01   -2.5764e-04   1.9407e+03
-4.0000e-01   -1.8250e-04   2.1918e+03
-3.0000e-01   -1.1990e-04   2.5021e+03
-2.0000e-01   -6.9248e-05   2.8882e+03
-1.0000e-01   -3.0324e-05   3.2977e+03
0.0000e+00   1.4938e-09   0.0000e+00
0.0000e+00   1.0064e-08   0.0000e+00
1.0000e-01   2.9782e-05   3.3577e+03
2.0000e-01   6.7012e-05   2.9845e+03
3.0000e-01   1.1435e-04   2.6235e+03
4.0000e-01   1.7274e-04   2.3156e+03
5.0000e-01   2.4086e-04   2.0759e+03
6.0000e-01   3.2414e-04   1.8511e+03
7.0000e-01   4.1840e-04   1.6730e+03
8.0000e-01   5.1960e-04   1.5396e+03
9.0000e-01   6.4620e-04   1.3928e+03
1.0000e+00   7.9440e-04   1.2588e+03
1.1000e+00   9.6446e-04   1.1405e+03
1.2000e+00   1.2178e-03   9.8538e+02
1.3000e+00   1.4094e-03   9.2238e+02
1.4000e+00   1.6310e-03   8.5837e+02
1.5000e+00   1.8694e-03   8.0240e+02
1.6000e+00   2.1018e-03   7.6125e+02
1.7000e+00   2.3418e-03   7.2594e+02
1.8000e+00   2.5996e-03   6.9241e+02
1.9000e+00   2.8588e-03   6.6461e+02
2.0000e+00   3.1114e-03   6.4280e+02
2.1000e+00   3.3332e-03   6.3003e+02
2.2000e+00   2.7986e-03   7.8611e+02
2.3000e+00   2.9616e-03   7.7661e+02
2.4000e+00   2.0776e-03   1.1552e+03
2.5000e+00   1.8642e-03   1.3411e+03
2.5000e+00   1.8198e-03   1.3738e+03
2.4000e+00   1.5470e-03   1.5514e+03
2.3000e+00   1.3804e-03   1.6662e+03
2.2000e+00   1.2746e-03   1.7260e+03
2.1000e+00   1.1164e-03   1.8810e+03
2.0000e+00   1.0402e-03   1.9227e+03
1.9000e+00   9.3384e-04   2.0346e+03
1.8000e+00   8.4762e-04   2.1236e+03
1.7000e+00   7.6424e-04   2.2244e+03
1.6000e+00   6.9056e-04   2.3170e+03
1.5000e+00   6.2510e-04   2.3996e+03
1.4000e+00   5.6044e-04   2.4980e+03
1.3000e+00   5.0136e-04   2.5929e+03
1.2000e+00   4.4442e-04   2.7001e+03
1.1000e+00   3.9426e-04   2.7900e+03
1.0000e+00   3.4248e-04   2.9199e+03
9.0000e-01   2.9624e-04   3.0381e+03
8.0000e-01   2.5246e-04   3.1688e+03
7.0000e-01   2.1110e-04   3.3160e+03
6.0000e-01   1.7356e-04   3.4570e+03
5.0000e-01   1.3774e-04   3.6300e+03
4.0000e-01   1.0470e-04   3.8204e+03
3.0000e-01   7.2302e-05   4.1493e+03
2.0000e-01   4.5816e-05   4.3653e+03
1.0000e-01   2.1764e-05   4.5947e+03
0.0000e+00   8.9442e-09   0.0000e+00
