  Measurement Number     Measurement type
                  38                DC IV

      Measurement ID             SeriesID
       739694.768336                   75

         MeasureMode                Bias1                Bias2
                   2                   -3                  2.5

                Step  Positive compliance  Negative compliance
                 0.1                 0.01                 0.01

  RealMeasuredPoints
                 114

        Bias        Current     Resistance
0.0000e+00   8.8464e-09   0.0000e+00
-1.0000e-01   -2.0952e-05   4.7728e+03
-2.0000e-01   -4.3690e-05   4.5777e+03
-3.0000e-01   -6.9258e-05   4.3316e+03
-4.0000e-01   -9.7484e-05   4.1032e+03
-5.0000e-01   -1.2058e-04   4.1466e+03
-6.0000e-01   -1.5626e-04   3.8398e+03
-7.0000e-01   -1.8942e-04   3.6955e+03
-8.0000e-01   -2.3270e-04   3.4379e+03
-9.0000e-01   -3.1154e-04   2.8889e+03
-1.0000e+00   -4.0120e-04   2.4925e+03
-1.1000e+00   -5.7386e-04   1.9168e+03
-1.2000e+00   -8.5540e-04   1.4029e+03
-1.3000e+00   -1.2102e-03   1.0742e+03
-1.4000e+00   -1.4488e-03   9.6632e+02
-1.5000e+00   -1.6880e-03   8.8863e+02
-1.6000e+00   -1.9352e-03   8.2679e+02
-1.7000e+00   -2.1968e-03   7.7385e+02
-1.8000e+00   -2.6076e-03   6.9029e+02
-1.9000e+00   -2.8964e-03   6.5599e+02
-2.0000e+00   -3.1298e-03   6.3902e+02
-2.1000e+00   -3.3940e-03   6.1874e+02
-2.2000e+00   -3.6332e-03   6.0553e+02
-2.3000e+00   -3.8654e-03   5.9502e+02
-2.4000e+00   -4.0488e-03   5.9277e+02
-2.5000e+00   -4.2388e-03   5.8979e+02
-2.6000e+00   -4.4532e-03   5.8385e+02
-2.7000e+00   -4.6730e-03   5.7779e+02
-2.8000e+00   -4.9234e-03   5.6871e+02
-2.9000e+00   -5.2176e-03   5.5581e+02
-3.0000e+00   -5.5146e-03   5.4401e+02
-3.0000e+00   -5.5162e-03   5.4385e+02
-2.9000e+00   -5.2246e-03   5.5507e+02
-2.8000e+00   -4.9656e-03   5.6388e+02
-2.7000e+00   -4.6894e-03   5.7577e+02
-2.6000e+00   -4.4218e-03   5.8800e+02
-2.5000e+00   -4.1592e-03   6.0108e+02
-2.4000e+00   -3.9082e-03   6.1409e+02
-2.3000e+00   -3.6560e-03   6.2910e+02
-2.2000e+00   -3.3984e-03   6.4736e+02
-2.1000e+00   -3.1608e-03   6.6439e+02
-2.0000e+00   -2.9182e-03   6.8535e+02
-1.9000e+00   -2.6820e-03   7.0843e+02
-1.8000e+00   -2.4532e-03   7.3374e+02
-1.7000e+00   -2.2308e-03   7.6206e+02
-1.6000e+00   -2.0126e-03   7.9499e+02
-1.5000e+00   -1.8008e-03   8.3296e+02
-1.4000e+00   -1.5958e-03   8.7730e+02
-1.3000e+00   -1.4010e-03   9.2791e+02
-1.2000e+00   -1.2144e-03   9.8814e+02
-1.1000e+00   -1.0380e-03   1.0597e+03
-1.0000e+00   -8.7452e-04   1.1435e+03
-9.0000e-01   -7.2398e-04   1.2431e+03
-8.0000e-01   -5.8692e-04   1.3630e+03
-7.0000e-01   -4.6570e-04   1.5031e+03
-6.0000e-01   -3.5858e-04   1.6733e+03
-5.0000e-01   -2.6586e-04   1.8807e+03
-4.0000e-01   -1.8766e-04   2.1315e+03
-3.0000e-01   -1.2282e-04   2.4426e+03
-2.0000e-01   -7.0714e-05   2.8283e+03
-1.0000e-01   -3.0970e-05   3.2289e+03
0.0000e+00   1.1076e-08   0.0000e+00
0.0000e+00   1.0233e-08   0.0000e+00
1.0000e-01   3.0538e-05   3.2746e+03
2.0000e-01   6.9038e-05   2.8970e+03
3.0000e-01   1.1880e-04   2.5253e+03
4.0000e-01   1.7884e-04   2.2366e+03
5.0000e-01   2.4954e-04   2.0037e+03
6.0000e-01   3.3214e-04   1.8065e+03
7.0000e-01   4.3182e-04   1.6210e+03
8.0000e-01   5.4182e-04   1.4765e+03
9.0000e-01   6.8538e-04   1.3131e+03
1.0000e+00   8.4342e-04   1.1856e+03
1.1000e+00   1.0202e-03   1.0782e+03
1.2000e+00   1.1920e-03   1.0067e+03
1.3000e+00   1.3706e-03   9.4849e+02
1.4000e+00   1.5926e-03   8.7907e+02
1.5000e+00   1.8050e-03   8.3102e+02
1.6000e+00   2.0562e-03   7.7813e+02
1.7000e+00   2.2974e-03   7.3997e+02
1.8000e+00   2.5450e-03   7.0727e+02
1.9000e+00   2.8158e-03   6.7476e+02
2.0000e+00   3.0924e-03   6.4675e+02
2.1000e+00   3.3222e-03   6.3211e+02
2.2000e+00   2.7780e-03   7.9194e+02
2.3000e+00   2.8940e-03   7.9475e+02
2.4000e+00   2.0732e-03   1.1576e+03
2.5000e+00   1.9698e-03   1.2692e+03
2.5000e+00   1.8264e-03   1.3688e+03
2.4000e+00   1.5670e-03   1.5316e+03
2.3000e+00   1.4510e-03   1.5851e+03
2.2000e+00   1.3460e-03   1.6345e+03
2.1000e+00   1.2408e-03   1.6925e+03
2.0000e+00   1.1216e-03   1.7832e+03
1.9000e+00   1.0164e-03   1.8693e+03
1.8000e+00   9.1280e-04   1.9720e+03
1.7000e+00   8.3430e-04   2.0376e+03
1.6000e+00   7.5816e-04   2.1104e+03
1.5000e+00   6.8738e-04   2.1822e+03
1.4000e+00   6.1650e-04   2.2709e+03
1.3000e+00   5.5482e-04   2.3431e+03
1.2000e+00   4.9710e-04   2.4140e+03
1.1000e+00   4.4250e-04   2.4859e+03
1.0000e+00   3.9042e-04   2.5613e+03
9.0000e-01   3.4060e-04   2.6424e+03
8.0000e-01   2.9156e-04   2.7439e+03
7.0000e-01   2.4820e-04   2.8203e+03
6.0000e-01   2.0512e-04   2.9251e+03
5.0000e-01   1.6434e-04   3.0425e+03
4.0000e-01   1.2496e-04   3.2010e+03
3.0000e-01   8.6144e-05   3.4825e+03
2.0000e-01   5.4294e-05   3.6836e+03
1.0000e-01   2.5888e-05   3.8628e+03
0.0000e+00   1.0223e-08   0.0000e+00
