  Measurement Number     Measurement type
                  43                DC IV

      Measurement ID             SeriesID
       739704.758028                   80

         MeasureMode                Bias1                Bias2
                   2                    2                   -1

                Step  Positive compliance  Negative compliance
                0.05                1e-05                1e-06

  RealMeasuredPoints
                 124

        Bias        Current     Resistance
0.0000e+00   -9.6700e-12   -0.0000e+00
5.0000e-02   -4.2900e-12   -1.1655e+10
1.0000e-01   8.8500e-12   1.1299e+10
1.5000e-01   1.8780e-11   7.9872e+09
2.0000e-01   -3.6200e-12   -5.5249e+10
2.5000e-01   -9.5300e-12   -2.6233e+10
3.0000e-01   5.1600e-12   5.8140e+10
3.5000e-01   2.4390e-11   1.4350e+10
4.0000e-01   2.3030e-11   1.7369e+10
4.5000e-01   1.2900e-11   3.4884e+10
5.0000e-01   2.6110e-11   1.9150e+10
5.5000e-01   5.8470e-11   9.4065e+09
6.0000e-01   7.9730e-11   7.5254e+09
6.5000e-01   1.2098e-10   5.3728e+09
7.0000e-01   3.4217e-10   2.0458e+09
7.5000e-01   1.1230e-09   6.6785e+08
8.0000e-01   1.3853e-09   5.7749e+08
8.5000e-01   3.5641e-09   2.3849e+08
9.0000e-01   5.1175e-09   1.7587e+08
9.5000e-01   1.4764e-08   6.4345e+07
1.0000e+00   2.2345e-08   4.4753e+07
1.0500e+00   2.1402e-08   4.9060e+07
1.1000e+00   2.4516e-08   4.4868e+07
1.1500e+00   2.7519e-08   4.1789e+07
1.2000e+00   4.8152e-08   2.4921e+07
1.2500e+00   1.4522e-07   8.6076e+06
1.3000e+00   2.2892e-07   5.6788e+06
1.3500e+00   5.1624e-07   2.6151e+06
1.4000e+00   3.5490e-06   3.9448e+05
1.4500e+00   1.0001e-05   1.4498e+05
1.5000e+00   9.9980e-06   1.5003e+05
1.5500e+00   9.9997e-06   1.5500e+05
1.6000e+00   9.9994e-06   1.6001e+05
1.6500e+00   9.9999e-06   1.6500e+05
1.7000e+00   9.9979e-06   1.7004e+05
1.7500e+00   1.0000e-05   1.7499e+05
1.8000e+00   1.0001e-05   1.7998e+05
1.8500e+00   1.0001e-05   1.8499e+05
1.9000e+00   1.0002e-05   1.8996e+05
1.9500e+00   1.0001e-05   1.9498e+05
2.0000e+00   9.9977e-06   2.0005e+05
2.0000e+00   1.0002e-05   1.9995e+05
1.9500e+00   1.0001e-05   1.9499e+05
1.9000e+00   9.9994e-06   1.9001e+05
1.8500e+00   9.9994e-06   1.8501e+05
1.8000e+00   1.0001e-05   1.7999e+05
1.7500e+00   9.9989e-06   1.7502e+05
1.7000e+00   9.9987e-06   1.7002e+05
1.6500e+00   9.9988e-06   1.6502e+05
1.6000e+00   1.0001e-05   1.5998e+05
1.5500e+00   1.0000e-05   1.5500e+05
1.5000e+00   9.9989e-06   1.5002e+05
1.4500e+00   1.0000e-05   1.4500e+05
1.4000e+00   1.0002e-05   1.3997e+05
1.3500e+00   1.0000e-05   1.3500e+05
1.3000e+00   9.9981e-06   1.3002e+05
1.2500e+00   9.9999e-06   1.2500e+05
1.2000e+00   1.0000e-05   1.2000e+05
1.1500e+00   9.6297e-06   1.1942e+05
1.1000e+00   9.7473e-06   1.1285e+05
1.0500e+00   8.5429e-06   1.2291e+05
1.0000e+00   7.4517e-06   1.3420e+05
9.5000e-01   7.0987e-06   1.3383e+05
9.0000e-01   6.2302e-06   1.4446e+05
8.5000e-01   6.0035e-06   1.4158e+05
8.0000e-01   4.5498e-06   1.7583e+05
7.5000e-01   3.1056e-06   2.4150e+05
7.0000e-01   4.2276e-06   1.6558e+05
6.5000e-01   4.1913e-06   1.5508e+05
6.0000e-01   2.9040e-06   2.0661e+05
5.5000e-01   2.2525e-06   2.4417e+05
5.0000e-01   8.4820e-07   5.8948e+05
4.5000e-01   5.1228e-07   8.7843e+05
4.0000e-01   5.6288e-07   7.1063e+05
3.5000e-01   1.7588e-07   1.9900e+06
3.0000e-01   5.1800e-09   5.7915e+07
2.5000e-01   2.3544e-09   1.0618e+08
2.0000e-01   1.8050e-10   1.1080e+09
1.5000e-01   9.5610e-11   1.5689e+09
1.0000e-01   2.8200e-12   3.5461e+10
5.0000e-02   8.4800e-12   5.8962e+09
0.0000e+00   1.0170e-11   0.0000e+00
0.0000e+00   3.0000e-14   0.0000e+00
-5.0000e-02   7.9100e-12   -6.3211e+09
-1.0000e-01   1.0560e-11   -9.4697e+09
-1.5000e-01   -8.5000e-12   1.7647e+10
-2.0000e-01   -4.6900e-12   4.2644e+10
-2.5000e-01   -1.4490e-11   1.7253e+10
-3.0000e-01   -1.6510e-11   1.8171e+10
-3.5000e-01   -5.0600e-12   6.9170e+10
-4.0000e-01   -2.5200e-12   1.5873e+11
-4.5000e-01   -2.5040e-11   1.7971e+10
-5.0000e-01   -3.9350e-11   1.2706e+10
-5.5000e-01   -6.0140e-11   9.1453e+09
-6.0000e-01   -6.7580e-11   8.8784e+09
-6.5000e-01   -9.8660e-11   6.5883e+09
-7.0000e-01   -1.3670e-10   5.1207e+09
-7.5000e-01   -1.9519e-10   3.8424e+09
-8.0000e-01   -2.4575e-10   3.2553e+09
-8.5000e-01   -2.9207e-10   2.9103e+09
-9.0000e-01   -3.1973e-10   2.8149e+09
-9.5000e-01   -3.6906e-10   2.5741e+09
-1.0000e+00   -4.0901e-10   2.4449e+09
-1.0000e+00   -4.3730e-10   2.2868e+09
-9.5000e-01   -3.6469e-10   2.6050e+09
-9.0000e-01   -3.1455e-10   2.8612e+09
-8.5000e-01   -2.6899e-10   3.1600e+09
-8.0000e-01   -2.3403e-10   3.4184e+09
-7.5000e-01   -1.9131e-10   3.9203e+09
-7.0000e-01   -1.5349e-10   4.5606e+09
-6.5000e-01   -1.3773e-10   4.7194e+09
-6.0000e-01   -5.8020e-11   1.0341e+10
-5.5000e-01   -5.1940e-11   1.0589e+10
-5.0000e-01   -2.6330e-11   1.8990e+10
-4.5000e-01   -1.8710e-11   2.4051e+10
-4.0000e-01   -9.9800e-12   4.0080e+10
-3.5000e-01   3.7300e-12   -9.3834e+10
-3.0000e-01   1.0740e-11   -2.7933e+10
-2.5000e-01   -2.1600e-12   1.1574e+11
-2.0000e-01   -1.7400e-12   1.1494e+11
-1.5000e-01   -5.5200e-12   2.7174e+10
-1.0000e-01   -2.5900e-12   3.8610e+10
-5.0000e-02   8.0700e-12   -6.1958e+09
0.0000e+00   1.5320e-11   0.0000e+00
