  Measurement Number     Measurement type
                  16                DC IV

      Measurement ID             SeriesID
       739707.644865                    0

         MeasureMode                Bias1                Bias2
                   2                    2                   -1

                Step  Positive compliance  Negative compliance
                0.05                1e-05                1e-06

  RealMeasuredPoints
                 124

        Bias        Current     Resistance
0.0000e+00   9.7700e-12   0.0000e+00
5.0000e-02   1.9490e-11   2.5654e+09
1.0000e-01   9.1400e-12   1.0941e+10
1.5000e-01   -1.0140e-11   -1.4793e+10
2.0000e-01   -1.3100e-12   -1.5267e+11
2.5000e-01   2.6150e-11   9.5602e+09
3.0000e-01   2.9610e-11   1.0132e+10
3.5000e-01   8.2800e-12   4.2271e+10
4.0000e-01   1.2480e-11   3.2051e+10
4.5000e-01   4.7040e-11   9.5663e+09
5.0000e-01   6.1950e-11   8.0710e+09
5.5000e-01   4.1040e-11   1.3402e+10
6.0000e-01   6.1160e-11   9.8103e+09
6.5000e-01   1.0046e-10   6.4702e+09
7.0000e-01   1.3178e-10   5.3119e+09
7.5000e-01   1.6271e-10   4.6094e+09
8.0000e-01   1.3476e-10   5.9365e+09
8.5000e-01   1.8079e-10   4.7016e+09
9.0000e-01   2.2924e-10   3.9260e+09
9.5000e-01   2.6510e-10   3.5836e+09
1.0000e+00   3.5945e-10   2.7820e+09
1.0500e+00   3.7134e-10   2.8276e+09
1.1000e+00   3.9689e-10   2.7715e+09
1.1500e+00   4.9202e-10   2.3373e+09
1.2000e+00   1.0580e-09   1.1342e+09
1.2500e+00   1.1066e-09   1.1296e+09
1.3000e+00   1.2536e-09   1.0370e+09
1.3500e+00   1.3366e-09   1.0100e+09
1.4000e+00   1.6065e-09   8.7146e+08
1.4500e+00   1.7001e-09   8.5289e+08
1.5000e+00   1.9424e-09   7.7224e+08
1.5500e+00   2.0241e-09   7.6577e+08
1.6000e+00   2.0473e-09   7.8152e+08
1.6500e+00   2.6822e-09   6.1517e+08
1.7000e+00   5.1199e-09   3.3204e+08
1.7500e+00   7.9886e-09   2.1906e+08
1.8000e+00   9.4690e-09   1.9009e+08
1.8500e+00   1.0113e-08   1.8293e+08
1.9000e+00   1.3199e-08   1.4395e+08
1.9500e+00   1.1894e-08   1.6395e+08
2.0000e+00   1.6289e-08   1.2278e+08
2.0000e+00   1.2759e-08   1.5675e+08
1.9500e+00   1.1701e-08   1.6666e+08
1.9000e+00   1.1805e-08   1.6095e+08
1.8500e+00   1.5554e-08   1.1894e+08
1.8000e+00   1.9549e-08   9.2077e+07
1.7500e+00   1.4351e-08   1.2195e+08
1.7000e+00   1.5872e-08   1.0710e+08
1.6500e+00   1.5613e-08   1.0568e+08
1.6000e+00   1.3678e-08   1.1698e+08
1.5500e+00   1.0478e-08   1.4793e+08
1.5000e+00   6.4837e-09   2.3135e+08
1.4500e+00   8.3717e-09   1.7320e+08
1.4000e+00   7.3321e-09   1.9094e+08
1.3500e+00   5.5905e-09   2.4148e+08
1.3000e+00   5.1547e-09   2.5220e+08
1.2500e+00   4.4245e-09   2.8252e+08
1.2000e+00   5.3706e-09   2.2344e+08
1.1500e+00   4.2196e-09   2.7254e+08
1.1000e+00   2.6755e-09   4.1114e+08
1.0500e+00   1.4701e-09   7.1424e+08
1.0000e+00   5.0464e-10   1.9816e+09
9.5000e-01   4.8707e-10   1.9504e+09
9.0000e-01   3.8448e-10   2.3408e+09
8.5000e-01   3.4515e-10   2.4627e+09
8.0000e-01   2.4339e-10   3.2869e+09
7.5000e-01   1.7602e-10   4.2609e+09
7.0000e-01   1.2727e-10   5.5001e+09
6.5000e-01   8.8100e-11   7.3780e+09
6.0000e-01   8.3730e-11   7.1659e+09
5.5000e-01   5.7990e-11   9.4844e+09
5.0000e-01   2.8550e-11   1.7513e+10
4.5000e-01   1.0800e-11   4.1667e+10
4.0000e-01   3.0470e-11   1.3128e+10
3.5000e-01   2.4780e-11   1.4124e+10
3.0000e-01   9.0600e-12   3.3113e+10
2.5000e-01   -1.6500e-11   -1.5152e+10
2.0000e-01   -9.1500e-12   -2.1858e+10
1.5000e-01   6.2300e-12   2.4077e+10
1.0000e-01   8.6200e-12   1.1601e+10
5.0000e-02   -1.2340e-11   -4.0519e+09
0.0000e+00   -2.0090e-11   -0.0000e+00
0.0000e+00   1.4240e-11   0.0000e+00
-5.0000e-02   2.2600e-12   -2.2124e+10
-1.0000e-01   -1.8950e-11   5.2770e+09
-1.5000e-01   -2.8720e-11   5.2228e+09
-2.0000e-01   -1.9100e-11   1.0471e+10
-2.5000e-01   -1.3440e-11   1.8601e+10
-3.0000e-01   -1.6450e-11   1.8237e+10
-3.5000e-01   -4.6360e-11   7.5496e+09
-4.0000e-01   -6.6980e-11   5.9719e+09
-4.5000e-01   -7.1220e-11   6.3184e+09
-5.0000e-01   -6.3500e-11   7.8740e+09
-5.5000e-01   -7.3140e-11   7.5198e+09
-6.0000e-01   -1.0713e-10   5.6007e+09
-6.5000e-01   -1.5893e-10   4.0899e+09
-7.0000e-01   -1.8494e-10   3.7850e+09
-7.5000e-01   -1.9219e-10   3.9024e+09
-8.0000e-01   -2.0986e-10   3.8121e+09
-8.5000e-01   -2.6825e-10   3.1687e+09
-9.0000e-01   -3.3257e-10   2.7062e+09
-9.5000e-01   -4.8774e-10   1.9478e+09
-1.0000e+00   -5.9984e-10   1.6671e+09
-1.0000e+00   -5.6811e-10   1.7602e+09
-9.5000e-01   -3.3906e-10   2.8019e+09
-9.0000e-01   -3.0149e-10   2.9852e+09
-8.5000e-01   -2.6259e-10   3.2370e+09
-8.0000e-01   -2.3022e-10   3.4749e+09
-7.5000e-01   -2.0080e-10   3.7351e+09
-7.0000e-01   -1.5659e-10   4.4703e+09
-6.5000e-01   -1.1340e-10   5.7319e+09
-6.0000e-01   -9.0230e-11   6.6497e+09
-5.5000e-01   -9.2430e-11   5.9504e+09
-5.0000e-01   -8.9920e-11   5.5605e+09
-4.5000e-01   -5.3900e-11   8.3488e+09
-4.0000e-01   -2.0930e-11   1.9111e+10
-3.5000e-01   -2.0550e-11   1.7032e+10
-3.0000e-01   -2.2350e-11   1.3423e+10
-2.5000e-01   -2.7340e-11   9.1441e+09
-2.0000e-01   -6.6900e-12   2.9895e+10
-1.5000e-01   1.0350e-11   -1.4493e+10
-1.0000e-01   2.1800e-12   -4.5872e+10
-5.0000e-02   -6.6300e-12   7.5415e+09
0.0000e+00   -1.5200e-11   -0.0000e+00
